Intensity vs Wavelength, Run #3
Wavelength ( nm )	Intensity ( Volts )
342.69	-0.013
342.69	-0.013
342.80	-0.013
342.80	-0.013
342.92	-0.014
342.92	-0.015
342.92	-0.015
343.04	-0.015
343.04	-0.014
343.04	-0.013
343.04	-0.013
343.04	-0.012
343.04	-0.010
343.04	-0.009
343.04	-0.008
343.04	-0.008
343.16	-0.009
343.28	-0.008
343.28	-0.008
343.40	-0.008
343.40	-0.009
343.51	-0.011
343.51	-0.012
343.63	-0.013
343.75	-0.015
343.87	-0.016
343.98	-0.017
344.22	-0.018
344.34	-0.018
344.57	-0.019
344.81	-0.018
345.04	-0.017
345.16	-0.015
345.51	-0.014
345.98	-0.013
346.44	-0.013
347.03	-0.013
347.72	-0.013
348.30	-0.012
348.88	-0.012
349.80	-0.012
350.83	-0.011
351.62	-0.011
352.64	-0.010
353.54	-0.009
354.66	-0.009
355.67	-0.010
356.99	-0.012
357.98	-0.013
359.18	-0.015
360.05	-0.016
361.02	-0.016
362.09	-0.016
362.94	-0.017
363.90	-0.016
364.63	-0.015
365.57	-0.014
366.30	-0.013
366.40	-0.013
366.40	-0.012
366.40	-0.011
366.50	-0.010
366.50	-0.009
366.50	-0.010
366.61	-0.010
366.71	-0.009
366.81	-0.010
366.92	-0.011
367.02	-0.012
367.23	-0.013
367.43	-0.013
367.64	-0.012
367.84	-0.011
368.05	-0.012
368.45	-0.013
368.76	-0.012
369.06	-0.012
369.47	-0.012
369.97	-0.013
370.48	-0.014
371.08	-0.014
371.67	-0.015
372.46	-0.014
373.35	-0.015
374.52	-0.016
375.87	-0.017
377.86	-0.017
380.55	-0.017
384.15	-0.017
386.08	-0.016
388.90	-0.015
391.22	-0.014
393.49	-0.012
395.86	-0.013
397.79	-0.014
399.38	-0.014
400.65	-0.014
401.76	-0.015
402.64	-0.016
403.14	-0.018
403.65	-0.019
404.08	-0.019
404.37	-0.018
404.65	-0.017
404.79	-0.016
405.01	-0.016
405.22	-0.016
405.50	-0.015
405.79	-0.013
406.21	-0.010
406.63	-0.009
407.05	-0.009
407.68	-0.008
408.23	-0.007
408.78	-0.005
409.40	-0.004
409.95	-0.004
410.49	-0.003
411.04	-0.003
411.51	-0.003
412.12	-0.004
412.73	-0.005
413.40	-0.005
414.13	-0.005
414.87	-0.006
415.80	-0.007
416.72	-0.007
417.65	-0.005
418.58	-0.004
419.57	-0.003
420.56	-0.002
421.42	-0.002
422.22	-9.919E-4
423.15	6.867E-4
424.01	4.196E-4
424.82	-0.001
425.62	-0.002
426.43	-0.002
427.25	-0.002
428.07	-0.002
428.89	-0.002
429.65	-0.002
430.62	-0.002
431.67	-6.867E-4
432.74	0.001
433.74	0.002
434.69	0.002
435.34	0.002
436.30	0.003
437.12	0.004
437.88	0.005
438.33	0.003
438.87	0.001
439.41	5.341E-4
440.03	0.002
440.65	0.003
441.05	0.003
441.52	0.002
441.92	0.001
442.24	0.002
442.65	0.003
443.05	0.003
443.46	0.004
443.78	0.005
444.20	0.006
444.78	0.007
445.44	0.008
446.20	0.007
447.06	0.008
447.92	0.008
449.06	0.007
450.05	0.006
450.95	0.005
451.68	0.005
452.42	0.007
453.17	0.008
454.02	0.009
454.69	0.010
455.46	0.010
456.44	0.010
457.43	0.010
458.44	0.009
459.56	0.009
460.50	0.008
461.55	0.008
462.72	0.007
463.70	0.008
464.69	0.009
465.47	0.011
466.48	0.012
467.39	0.012
468.32	0.012
469.13	0.013
469.96	0.014
470.92	0.014
471.89	0.014
472.74	0.014
473.49	0.015
474.36	0.015
475.25	0.015
476.01	0.016
476.53	0.018
477.05	0.017
477.57	0.016
478.09	0.017
478.75	0.017
479.55	0.016
480.23	0.015
481.04	0.015
481.86	0.015
482.69	0.016
483.53	0.016
484.66	0.016
485.38	0.016
485.95	0.017
486.83	0.018
487.71	0.019
488.45	0.020
489.19	0.022
489.94	0.024
490.85	0.027
492.08	0.028
493.02	0.028
493.96	0.028
494.75	0.028
495.71	0.029
496.35	0.029
496.84	0.028
497.17	0.027
497.33	0.027
497.49	0.028
497.66	0.029
498.15	0.030
498.64	0.030
499.31	0.029
499.98	0.030
500.65	0.031
501.67	0.030
502.70	0.030
503.91	0.030
504.97	0.030
506.39	0.030
507.47	0.031
508.55	0.032
509.65	0.032
510.77	0.033
511.51	0.033
512.46	0.033
513.21	0.033
513.98	0.034
514.75	0.033
515.52	0.034
516.30	0.034
517.09	0.034
517.88	0.035
518.48	0.037
519.48	0.037
520.29	0.037
521.10	0.037
521.72	0.038
522.54	0.040
523.37	0.041
523.99	0.042
524.41	0.042
525.04	0.042
525.89	0.044
526.96	0.045
527.82	0.045
528.47	0.045
529.56	0.046
530.66	0.047
532.21	0.047
533.56	0.047
534.70	0.048
536.07	0.049
537.69	0.051
539.34	0.052
540.52	0.052
541.96	0.052
543.41	0.054
545.13	0.056
546.86	0.056
547.87	0.055
549.13	0.054
550.40	0.055
552.21	0.057
553.77	0.059
555.62	0.060
557.49	0.062
559.65	0.065
561.57	0.067
563.80	0.070
565.49	0.072
566.91	0.072
568.64	0.073
570.09	0.074
571.56	0.074
573.04	0.075
574.53	0.076
576.04	0.078
577.86	0.079
579.71	0.081
581.89	0.083
584.10	0.086
586.34	0.089
588.94	0.093
591.57	0.096
594.93	0.099
597.65	0.104
600.42	0.108
603.58	0.112
607.53	0.117
611.18	0.121
614.16	0.124
617.19	0.128
621.03	0.132
625.35	0.137
629.76	0.142
633.44	0.147
637.61	0.152
641.86	0.158
646.20	0.164
649.73	0.170
654.23	0.177
658.35	0.185
663.03	0.192
666.83	0.201
670.70	0.209
675.13	0.217
678.64	0.225
682.19	0.234
685.80	0.243
689.98	0.253
693.17	0.262
695.85	0.270
698.57	0.279
701.31	0.287
703.53	0.295
706.32	0.303
708.58	0.309
711.43	0.313
713.74	0.317
716.06	0.323
718.40	0.329
720.76	0.335
723.74	0.341
726.15	0.348
727.97	0.355
730.42	0.364
733.50	0.374
735.37	0.382
737.88	0.390
739.78	0.399
742.33	0.408
744.90	0.416
746.85	0.424
749.46	0.432
752.76	0.440
756.09	0.448
758.78	0.456
761.50	0.464
764.25	0.472
766.32	0.481
768.41	0.489
769.81	0.496
771.21	0.503
773.33	0.511
774.76	0.518
776.18	0.525
776.90	0.531
779.06	0.537
781.24	0.543
783.42	0.550
785.63	0.556
788.59	0.563
791.58	0.570
795.36	0.580
798.41	0.590
802.27	0.601
806.95	0.612
810.91	0.626
814.91	0.640
818.96	0.655
823.06	0.670
827.20	0.684
829.71	0.698
833.09	0.713
836.50	0.729
839.07	0.743
842.54	0.757
846.92	0.772
850.46	0.788
854.03	0.803
857.64	0.820
863.12	0.837
869.62	0.853
874.32	0.871
879.09	0.890
883.91	0.908
888.80	0.927
891.76	0.946
895.74	0.964
899.76	0.981
901.78	0.997
904.84	1.014
907.92	1.031
912.06	1.047
915.19	1.063
919.41	1.078
923.67	1.093
927.97	1.108
930.14	1.123
932.31	1.136
933.41	1.147
934.50	1.158
935.60	1.167
936.70	1.176
938.91	1.185
938.91	1.192
940.02	1.200
942.25	1.206
945.62	1.213
946.74	1.222
949.01	1.229
951.28	1.237
954.71	1.245
957.02	1.254
959.33	1.263
961.66	1.273
964.00	1.283
966.35	1.292
968.71	1.302
971.09	1.312
972.28	1.320
974.68	1.329
977.09	1.339
978.29	1.349
980.72	1.357
981.94	1.366
983.16	1.373
985.61	1.383
990.55	1.394
994.29	1.406
999.32	1.418
1004.41	1.431
1012.14	1.445
1018.67	1.461
1022.63	1.479
1027.97	1.496
1032.00	1.514
1037.44	1.532
1042.93	1.550
1048.48	1.568
1055.50	1.586
1061.19	1.605
1069.83	1.624
1077.15	1.642
1086.05	1.661
1093.58	1.681
1104.30	1.702
1115.23	1.723
1126.37	1.745
1137.72	1.767
1149.29	1.788
1157.70	1.807
1166.22	1.825
1173.12	1.842
1180.10	1.855
1183.62	1.867
1188.94	1.877
1194.30	1.885
1197.89	1.893
1201.51	1.900
1205.15	1.905
1208.81	1.910
1212.49	1.915
1216.19	1.918
1221.77	1.922
1227.41	1.923
1233.09	1.924
1238.82	1.925
1242.67	1.926
1248.47	1.926
1250.42	1.926
1254.33	1.927
1260.24	1.926
1264.21	1.925
1266.20	1.925
1270.20	1.925
1272.20	1.925
1274.22	1.924
1278.26	1.923
1284.37	1.922
1290.53	1.923
1294.66	1.923
1298.82	1.921
1305.10	1.918
1311.43	1.917
1315.68	1.914
1319.96	1.911
1324.25	1.908
1326.41	1.904
1330.75	1.900
1332.92	1.896
1335.10	1.893
1339.49	1.891
1341.69	1.889
1346.10	1.887
1350.55	1.884
1357.26	1.882
1361.76	1.880
1370.85	1.877
1382.34	1.874
1389.31	1.870
1396.34	1.864
1403.43	1.859
1410.58	1.853
1417.78	1.848
1425.04	1.842
1429.92	1.836
1432.36	1.830
1437.28	1.824
1442.22	1.818
1447.18	1.812
1452.17	1.806
1459.71	1.801
1462.24	1.795
1467.31	1.789
1477.54	1.783
1482.69	1.775
1487.87	1.766
1493.08	1.758
1498.31	1.750
1506.21	1.741
1514.17	1.732
1519.52	1.722
1527.58	1.712
1538.43	1.702
1546.64	1.691
1554.91	1.679
1560.45	1.666
1574.44	1.653
1585.75	1.641
1594.31	1.626
1602.93	1.611
1614.51	1.597
1623.27	1.583
1632.09	1.569
1638.00	1.555
1643.95	1.541
1649.91	1.528
1652.91	1.517
1658.91	1.507
1664.94	1.496
1667.97	1.486
1674.04	1.476
1680.14	1.465
1686.26	1.455
1695.50	1.443
1704.79	1.431
1717.26	1.420
1729.84	1.408
1742.51	1.393
1748.88	1.379
1758.48	1.366
1764.91	1.352
1774.60	1.338
1781.08	1.324
1787.59	1.309
1794.12	1.295
1803.95	1.283
1813.83	1.270
1820.44	1.258
1830.40	1.246
1837.06	1.234
1850.43	1.222
1867.25	1.209
1880.78	1.194
1894.37	1.179
1904.60	1.164
1921.71	1.147
1935.45	1.131
1945.79	1.115
1952.69	1.099
1963.05	1.084
1973.43	1.071
1980.36	1.057
1987.29	1.043
1994.23	1.031
2004.64	1.018
2011.58	1.005
2022.00	0.993
2028.94	0.980
2039.35	0.968
2046.29	0.956
2053.22	0.944
2060.15	0.932
2070.53	0.920
2080.89	0.909
2091.23	0.898
2094.67	0.887
2101.54	0.877
2108.40	0.866
2115.25	0.856
2122.08	0.848
2132.29	0.841
2135.69	0.833
2135.69	0.824
2142.46	0.816
2149.21	0.807
2155.94	0.799
2165.99	0.790
2172.66	0.779
2185.92	0.767
2199.05	0.755
2212.05	0.743
2221.71	0.731
2231.28	0.720
2237.61	0.707
2250.14	0.695
2259.42	0.685
2265.55	0.675
2268.59	0.666
2271.62	0.658
2277.65	0.651
2283.62	0.643
2289.54	0.637
2295.40	0.632
2301.21	0.624
2309.80	0.615
2321.05	0.607
2332.03	0.599
2340.09	0.591
2347.99	0.584
2355.73	0.575
2360.79	0.566
2368.24	0.560
2375.51	0.554
2384.92	0.546
2393.99	0.538
2398.39	0.529
2406.93	0.519
2417.09	0.510
2424.78	0.502
2432.09	0.493
2440.66	0.483
2450.10	0.473
2458.59	0.464
2463.70	0.455
2468.38	0.446
2472.61	0.436
2476.40	0.425
2478.94	0.414
2481.23	0.405
2483.26	0.398
2485.03	0.390
