f(kHz),lines,scale,dt,f/f0,phi
4.0,3.0,100.0,60.0,0.39,86.4
6.0,2.0,100.0,40.0,0.58,86.4
8.0,3.0,50.0,30.0,0.78,86.4
8.5,2.5,50.0,25.0,0.83,76.5
9.0,2.0,50.0,20.0,0.87,64.8
9.5,4.0,20.0,16.0,0.92,54.72
10.0,3.0,20.0,12.0,0.97 ,43.2
10.5,-4.0,10.0,-8.0,,1.02-30.24
11.0,-3.5,20.0,-14.0,1.07,-55.44
11.5,-4.0,20.0,-16.0,1.12,-66.24
12.0,-4.0,20.0,-16.0,1.17,-69.12
14.0,-4.0,20.0,-16.0,1.36,-80.64
16.0,-4.0,20.0,-16.0,1.55,-92.16
18.0,-3.0,20.0,-12.0,1.75,-77.76
20.0,-3.0,20.0,-12.0,1.94,-86.4
